Table IV
The resulting deperturbed (diabatic) potential energy curves of the singlet A1Sigma+ 
state U_A(r) and triplet b3Pi(Omega=0,1,2) sub-states U_b0(r), U_b1(r), U_b2(r) 
as well as spin-orbit splitting A_01(r), A_12(r) and V_Ab0(r) functions.
Energies - in cm-1, internuclear distance in Angstroms.
=======================================================================================
     r       U_A       U_b0       U_b1        U_b2        A_01        A_12      V_Ab0
---------------------------------------------------------------------------------------
  Angstroms                                         cm-1
=======================================================================================
  2.300607  33839.671  32544.748  32714.188  32865.567    169.440    151.379    166.017
  2.308939  33475.503  31752.009  31921.224  32072.404    169.216    151.180    165.734
  2.317154  33122.979  31007.461  31176.446  31327.424    168.985    150.978    165.464
  2.325256  32781.529  30307.170  30475.920  30626.694    168.750    150.774    165.207
  2.333250  32450.618  29647.592  29816.102  29966.669    168.510    150.567    164.962
  2.341138  32129.744  29025.530  29193.795  29344.154    168.265    150.359    164.727
  2.348924  31818.439  28438.093  28606.110  28756.259    168.016    150.150    164.502
  2.356611  31516.263  27882.663  28050.427  28200.365    167.764    149.938    164.286
  2.364201  31222.801  27356.863  27524.371  27674.097    167.508    149.726    164.078
  2.371698  30937.666  26858.534  27025.783  27175.295    167.249    149.512    163.878
  2.379105  30660.490  26385.707  26552.694  26701.992    166.988    149.298    163.686
  2.386423  30390.929  25936.589  26103.312  26252.394    166.723    149.082    163.500
  2.393655  30128.658  25509.539  25675.996  25824.862    166.456    148.866    163.321
  2.400803  29873.371  25103.059  25269.247  25417.896    166.188    148.650    163.147
  2.407871  29624.778  24715.773  24881.690  25030.123    165.917    148.433    162.979
  2.414859  29382.604  24346.421  24512.065  24660.280    165.644    148.215    162.816
  2.421771  29146.593  23993.841  24159.211  24307.209    165.370    147.997    162.657
  2.428607  28916.497  23656.969  23822.063  23969.843    165.095    147.780    162.503
  2.435371  28692.086  23334.820  23499.638  23647.200    164.818    147.562    162.352
  2.442063  28473.139  23026.488  23191.028  23338.372    164.540    147.344    162.205
  2.448686  28259.447  22731.135  22895.397  23042.522    164.261    147.126    162.062
  2.455241  28050.813  22447.986  22611.968  22758.876    163.982    146.908    161.922
  2.461730  27847.048  22176.324  22340.025  22486.716    163.702    146.691    161.784
  2.468154  27647.973  21915.482  22078.903  22225.377    163.421    146.473    161.650
  2.474515  27453.418  21664.845  21827.985  21974.241    163.140    146.256    161.517
  2.480815  27263.221  21423.838  21586.696  21732.736    162.858    146.040    161.387
  2.487055  27077.228  21191.929  21354.505  21500.329    162.576    145.824    161.260
  2.493235  26895.291  20968.620  21130.914  21276.522    162.294    145.608    161.134
  2.499359  26717.272  20753.449  20915.461  21060.853    162.012    145.393    161.009
  2.505426  26543.036  20545.984  20707.714  20852.892    161.730    145.178    160.887
  2.511438  26372.455  20345.822  20507.270  20652.234    161.447    144.964    160.766
  2.517396  26205.409  20152.588  20313.753  20458.503    161.165    144.750    160.646
  2.523302  26041.779  19965.927  20126.811  20271.348    160.883    144.538    160.528
  2.529156  25881.456  19785.512  19946.114  20090.439    160.602    144.325    160.411
  2.534960  25724.332  19611.032  19771.352  19915.466    160.320    144.114    160.294
  2.540714  25570.307  19442.198  19602.238  19746.140    160.039    143.903    160.179
  2.546420  25419.281  19278.739  19438.497  19582.190    159.759    143.693    160.065
  2.552078  25271.163  19120.398  19279.877  19423.360    159.478    143.483    159.951
  2.557690  25125.862  18966.936  19126.135  19269.409    159.199    143.275    159.838
  2.563256  24983.293  18818.128  18977.047  19120.113    158.919    143.067    159.725
  2.568778  24843.373  18673.759  18832.400  18975.259    158.641    142.859    159.613
  2.574256  24706.024  18533.631  18691.994  18834.647    158.362    142.653    159.502
  2.579691  24571.170  18397.554  18555.639  18698.087    158.085    142.448    159.391
  2.585083  24438.737  18265.351  18423.159  18565.402    157.808    142.243    159.280
  2.590435  24308.657  18136.853  18294.385  18436.425    157.532    142.039    159.170
  2.595746  24180.861  18011.902  18169.159  18310.995    157.256    141.836    159.060
  2.601016  24055.285  17890.348  18047.329  18188.963    156.982    141.634    158.950
  2.606248  23931.867  17772.048  17928.755  18070.188    156.708    141.433    158.840
  2.611442  23810.548  17656.868  17813.302  17954.535    156.435    141.232    158.730
  2.616597  23691.269  17544.681  17700.843  17841.876    156.162    141.033    158.621
  2.621716  23573.976  17435.367  17591.258  17732.092    155.890    140.834    158.511
  2.626798  23458.614  17328.812  17484.431  17625.068    155.620    140.636    158.402
  2.631845  23345.132  17224.906  17380.256  17520.695    155.350    140.439    158.292
  2.636856  23233.482  17123.547  17278.628  17418.872    155.081    140.243    158.183
  2.641832  23123.614  17024.638  17179.451  17319.499    154.812    140.048    158.073
  2.646775  23015.483  16928.086  17082.631  17222.485    154.545    139.854    157.963
  2.651684  22909.044  16833.801  16988.080  17127.741    154.279    139.661    157.853
  2.656561  22804.255  16741.701  16895.714  17035.183    154.013    139.468    157.743
  2.661405  22701.074  16651.706  16805.454  16944.731    153.749    139.277    157.633
  2.666217  22599.460  16563.738  16717.223  16856.309    153.485    139.086    157.522
  2.670998  22499.376  16477.727  16630.949  16769.846    153.222    138.896    157.412
  2.675749  22400.783  16393.603  16546.563  16685.271    152.960    138.708    157.301
  2.680469  22303.645  16311.300  16463.999  16602.519    152.699    138.520    157.190
  2.685159  22207.929  16230.755  16383.194  16521.527    152.439    138.333    157.079
  2.689820  22113.599  16151.908  16304.088  16442.235    152.181    138.146    156.967
  2.694452  22020.623  16074.702  16226.625  16364.586    151.923    137.961    156.855
  2.699055  21928.969  15999.083  16150.748  16288.525    151.665    137.777    156.743
  2.703631  21838.607  15924.998  16076.407  16214.001    151.409    137.593    156.631
  2.708179  21749.507  15852.397  16003.551  16140.962    151.154    137.411    156.518
  2.712700  21661.641  15781.232  15932.132  16069.361    150.900    137.229    156.405
  2.717194  21574.979  15711.458  15862.105  15999.153    150.647    137.048    156.292
  2.721661  21489.497  15643.031  15793.426  15930.294    150.395    136.868    156.178
  2.726103  21405.166  15575.909  15726.053  15862.742    150.144    136.689    156.064
  2.730519  21321.963  15510.051  15659.945  15796.456    149.894    136.511    155.950
  2.734910  21239.862  15445.420  15595.065  15731.398    149.644    136.333    155.835
  2.739276  21158.839  15381.978  15531.375  15667.532    149.396    136.157    155.720
  2.743618  21078.871  15319.691  15468.840  15604.821    149.149    135.981    155.605
  2.747935  20999.937  15258.523  15407.425  15543.232    148.903    135.807    155.489
  2.752229  20922.013  15198.442  15347.100  15482.732    148.657    135.633    155.373
  2.756499  20845.080  15139.418  15287.831  15423.291    148.413    135.460    155.257
  2.760746  20769.116  15081.420  15229.589  15364.877    148.170    135.287    155.141
  2.764970  20694.101  15024.418  15172.346  15307.462    147.927    135.116    155.024
  2.769171  20620.016  14968.387  15116.072  15251.018    147.686    134.945    154.906
  2.773350  20546.842  14913.297  15060.743  15195.518    147.445    134.776    154.789
  2.777507  20474.561  14859.125  15006.331  15140.937    147.206    134.607    154.671
  2.781643  20403.155  14805.844  14952.812  15087.250    146.967    134.439    154.552
  2.785757  20332.606  14753.432  14900.162  15034.434    146.730    134.271    154.434
  2.789851  20262.898  14701.866  14848.359  14982.464    146.493    134.105    154.315
  2.793923  20194.015  14651.123  14797.380  14931.319    146.258    133.939    154.195
  2.797975  20125.940  14601.182  14747.205  14880.979    146.023    133.774    154.076
  2.802007  20058.658  14552.022  14697.811  14831.422    145.789    133.610    153.956
  2.806018  19992.154  14503.624  14649.181  14782.628    145.557    133.447    153.835
  2.810010  19926.413  14455.969  14601.294  14734.578    145.325    133.284    153.715
  2.813982  19861.420  14409.038  14554.132  14687.255    145.094    133.123    153.594
  2.817936  19797.163  14362.814  14507.678  14640.640    144.864    132.962    153.472
  2.821870  19733.627  14317.279  14461.915  14594.716    144.635    132.802    153.351
  2.825785  19670.799  14272.418  14416.825  14549.467    144.407    132.642    153.229
  2.829682  19608.666  14228.213  14372.393  14504.876    144.180    132.484    153.107
  2.833560  19547.215  14184.649  14328.603  14460.929    143.954    132.326    152.984
  2.837420  19486.435  14141.712  14285.440  14417.609    143.728    132.169    152.861
  2.841263  19426.313  14099.387  14242.891  14374.903    143.504    132.012    152.738
  2.845088  19366.838  14057.660  14200.941  14332.798    143.281    131.857    152.615
  2.848895  19307.999  14016.518  14159.576  14291.278    143.058    131.702    152.491
  2.852685  19249.783  13975.947  14118.784  14250.332    142.836    131.548    152.367
  2.856458  19192.181  13935.936  14078.551  14209.946    142.616    131.394    152.242
  2.860214  19135.182  13896.471  14038.867  14170.108    142.396    131.242    152.118
  2.863954  19078.776  13857.540  13999.717  14130.807    142.177    131.090    151.993
  2.867677  19022.952  13819.134  13961.092  14092.031    141.959    130.938    151.868
  2.871384  18967.702  13781.239  13922.981  14053.769    141.742    130.788    151.742
  2.875075  18913.014  13743.846  13885.371  14016.009    141.525    130.638    151.617
  2.878750  18858.880  13706.944  13848.254  13978.743    141.310    130.489    151.491
  2.882409  18805.291  13670.522  13811.618  13941.958    141.095    130.341    151.365
  2.886052  18752.238  13634.572  13775.454  13905.647    140.882    130.193    151.238
  2.889681  18699.712  13599.083  13739.752  13869.798    140.669    130.046    151.111
  2.893294  18647.704  13564.047  13704.504  13834.403    140.457    129.899    150.984
  2.896892  18596.207  13529.454  13669.699  13799.453    140.246    129.754    150.857
  2.900475  18545.211  13495.295  13635.330  13764.939    140.035    129.609    150.730
  2.904043  18494.710  13461.563  13601.388  13730.853    139.826    129.464    150.602
  2.907597  18444.696  13428.248  13567.865  13697.186    139.617    129.321    150.474
  2.911137  18395.160  13395.343  13534.752  13663.930    139.409    129.178    150.346
  2.914662  18346.096  13362.841  13502.043  13631.078    139.202    129.035    150.218
  2.918174  18297.495  13330.733  13469.729  13598.622    138.996    128.894    150.090
  2.921671  18249.352  13299.012  13437.803  13566.555    138.791    128.753    149.961
  2.925155  18201.659  13267.671  13406.257  13534.870    138.586    128.612    149.832
  2.928625  18154.408  13236.704  13375.086  13503.559    138.383    128.472    149.703
  2.932081  18107.595  13206.103  13344.282  13472.616    138.180    128.333    149.574
  2.935524  18061.211  13175.861  13313.839  13442.034    137.977    128.195    149.444
  2.938954  18015.252  13145.974  13283.750  13411.807    137.776    128.057    149.315
  2.942371  17969.709  13116.433  13254.009  13381.929    137.576    127.920    149.185
  2.945775  17924.578  13087.234  13224.610  13352.393    137.376    127.783    149.055
  2.949166  17879.852  13058.370  13195.547  13323.194    137.177    127.647    148.925
  2.952544  17835.526  13029.836  13166.814  13294.326    136.979    127.512    148.794
  2.955910  17791.593  13001.625  13138.407  13265.783    136.781    127.377    148.664
  2.959264  17748.049  12973.733  13110.318  13237.561    136.585    127.243    148.533
  2.962605  17704.887  12946.155  13082.543  13209.652    136.389    127.109    148.402
  2.965934  17662.102  12918.884  13055.077  13182.053    136.193    126.976    148.272
  2.969251  17619.689  12891.916  13027.915  13154.759    135.999    126.844    148.140
  2.972556  17577.643  12865.246  13001.052  13127.763    135.805    126.712    148.009
  2.975849  17535.958  12838.870  12974.482  13101.063    135.613    126.580    147.878
  2.979131  17494.630  12812.781  12948.202  13074.652    135.420    126.450    147.747
  2.982401  17453.654  12786.977  12922.206  13048.526    135.229    126.320    147.615
  2.985659  17413.024  12761.452  12896.491  13022.681    135.038    126.190    147.483
  2.988906  17372.737  12736.203  12871.051  12997.112    134.848    126.061    147.352
  2.992142  17332.788  12711.224  12845.883  12971.816    134.659    125.933    147.220
  2.995367  17293.171  12686.512  12820.982  12946.787    134.470    125.805    147.088
  2.998581  17253.883  12662.062  12796.345  12922.022    134.283    125.678    146.956
  3.001783  17214.920  12637.871  12771.966  12897.517    134.095    125.551    146.823
  3.004975  17176.276  12613.935  12747.844  12873.268    133.909    125.425    146.691
  3.008156  17137.949  12590.249  12723.973  12849.272    133.723    125.299    146.559
  3.011327  17099.933  12566.811  12700.350  12825.523    133.538    125.174    146.426
  3.014487  17062.225  12543.617  12676.971  12802.020    133.354    125.049    146.294
  3.017636  17024.821  12520.662  12653.833  12778.758    133.170    124.925    146.161
  3.020776  16987.716  12497.945  12630.932  12755.733    132.987    124.802    146.028
  3.023905  16950.908  12475.460  12608.265  12732.944    132.805    124.679    145.896
  3.027023  16914.392  12453.205  12585.829  12710.385    132.623    124.556    145.763
  3.030132  16878.165  12431.177  12563.620  12688.054    132.443    124.434    145.630
  3.033231  16842.223  12409.373  12541.635  12665.947    132.262    124.313    145.497
  3.036320  16806.562  12387.788  12519.871  12644.063    132.083    124.192    145.364
  3.039399  16771.180  12366.421  12498.325  12622.396    131.904    124.071    145.231
  3.042469  16736.071  12345.269  12476.994  12600.946    131.725    123.951    145.098
  3.045528  16701.235  12324.328  12455.875  12579.707    131.548    123.832    144.965
  3.048579  16666.666  12303.595  12434.966  12558.679    131.371    123.713    144.832
  3.051620  16632.362  12283.068  12414.263  12537.857    131.194    123.595    144.699
  3.054651  16598.319  12262.744  12393.763  12517.240    131.019    123.477    144.565
  3.057673  16564.535  12242.621  12373.464  12496.824    130.844    123.359    144.432
  3.060686  16531.006  12222.695  12353.364  12476.606    130.669    123.242    144.299
  3.063690  16497.729  12202.964  12333.460  12456.585    130.495    123.126    144.166
  3.066685  16464.702  12183.426  12313.748  12436.758    130.322    123.010    144.032
  3.069671  16431.921  12164.078  12294.228  12417.122    130.150    122.894    143.899
  3.072648  16399.384  12144.918  12274.895  12397.675    129.978    122.779    143.766
  3.075616  16367.087  12125.943  12255.749  12378.414    129.806    122.665    143.632
  3.078576  16335.028  12107.151  12236.786  12359.337    129.636    122.550    143.499
  3.081526  16303.205  12088.539  12218.005  12340.441    129.465    122.437    143.366
  3.084469  16271.613  12070.106  12199.402  12321.726    129.296    122.324    143.232
  3.087402  16240.252  12051.849  12180.976  12303.187    129.127    122.211    143.099
  3.090328  16209.118  12033.766  12162.725  12284.824    128.959    122.098    142.966
  3.093244  16178.209  12015.855  12144.646  12266.633    128.791    121.987    142.832
  3.096153  16147.522  11998.114  12126.738  12248.613    128.624    121.875    142.699
  3.099053  16117.054  11980.541  12108.998  12230.762    128.457    121.764    142.566
  3.101945  16086.804  11963.133  12091.424  12213.078    128.291    121.654    142.433
  3.104829  16056.769  11945.889  12074.015  12195.559    128.126    121.544    142.300
  3.107706  16026.946  11928.807  12056.768  12178.202    127.961    121.434    142.166
  3.110574  15997.333  11911.885  12039.681  12161.006    127.797    121.325    142.033
  3.113434  15967.929  11895.120  12022.753  12143.970    127.633    121.216    141.900
  3.116286  15938.729  11878.512  12005.982  12127.090    127.470    121.108    141.767
  3.119131  15909.734  11862.059  11989.366  12110.366    127.307    121.000    141.634
  3.121967  15880.939  11845.758  11972.903  12093.796    127.145    120.893    141.501
  3.124797  15852.344  11829.607  11956.591  12077.377    126.984    120.786    141.368
  3.127618  15823.946  11813.606  11940.429  12061.108    126.823    120.679    141.235
  3.130432  15795.743  11797.753  11924.415  12044.988    126.663    120.573    141.102
  3.133239  15767.732  11782.045  11908.548  12029.015    126.503    120.467    140.970
  3.136038  15739.912  11766.481  11892.825  12013.186    126.344    120.362    140.837
  3.138830  15712.282  11751.060  11877.245  11997.501    126.185    120.257    140.704
  3.141614  15684.838  11735.780  11861.806  11981.958    126.027    120.152    140.572
  3.144391  15657.579  11720.639  11846.508  11966.556    125.869    120.048    140.439
  3.147161  15630.503  11705.636  11831.348  11951.292    125.712    119.944    140.307
  3.149924  15603.608  11690.769  11816.325  11936.165    125.555    119.841    140.174
  3.152680  15576.893  11676.038  11801.437  11921.175    125.399    119.738    140.042
  3.155429  15550.356  11661.440  11786.683  11906.319    125.244    119.635    139.910
  3.158171  15523.994  11646.973  11772.062  11891.595    125.089    119.533    139.778
  3.160906  15497.806  11632.638  11757.572  11877.003    124.934    119.431    139.645
  3.163634  15471.790  11618.431  11743.212  11862.541    124.780    119.330    139.513
  3.166355  15445.945  11604.353  11728.980  11848.208    124.627    119.229    139.382
  3.169070  15420.268  11590.401  11714.875  11834.003    124.474    119.128    139.250
  3.171778  15394.759  11576.574  11700.895  11819.923    124.321    119.028    139.118
  3.174479  15369.416  11562.871  11687.040  11805.969    124.169    118.928    138.986
  3.177174  15344.236  11549.291  11673.309  11792.137    124.018    118.829    138.855
  3.179862  15319.219  11535.832  11659.699  11778.428    123.867    118.730    138.723
  3.182543  15294.362  11522.493  11646.209  11764.840    123.716    118.631    138.592
  3.185218  15269.664  11509.273  11632.839  11751.372    123.566    118.532    138.461
  3.187887  15245.125  11496.171  11619.587  11738.022    123.417    118.434    138.329
  3.190549  15220.741  11483.185  11606.452  11724.789    123.268    118.337    138.198
  3.193205  15196.512  11470.314  11593.433  11711.673    123.119    118.240    138.067
  3.195855  15172.436  11457.558  11580.529  11698.671    122.971    118.143    137.936
  3.198498  15148.513  11444.914  11567.738  11685.784    122.823    118.046    137.806
  3.201136  15124.739  11432.383  11555.059  11673.009    122.676    117.950    137.675
  3.203767  15101.114  11419.962  11542.491  11660.345    122.530    117.854    137.544
  3.206392  15077.637  11407.651  11530.034  11647.793    122.383    117.759    137.414
  3.209011  15054.306  11395.448  11517.686  11635.349    122.238    117.664    137.284
